# E (eV)  dos(E)    pdos(E)
 -22.279  0.340E-05  0.334E-05
 -22.179  0.209E-03  0.206E-03
 -22.079  0.469E-02  0.461E-02
 -21.979  0.401E-01  0.395E-01
 -21.879  0.143E+00  0.141E+00
 -21.779  0.256E+00  0.251E+00
 -21.679  0.301E+00  0.296E+00
 -21.579  0.308E+00  0.303E+00
 -21.479  0.309E+00  0.304E+00
 -21.379  0.309E+00  0.304E+00
 -21.279  0.310E+00  0.304E+00
 -21.179  0.310E+00  0.304E+00
 -21.079  0.310E+00  0.305E+00
 -20.979  0.311E+00  0.305E+00
 -20.879  0.311E+00  0.305E+00
 -20.779  0.311E+00  0.306E+00
 -20.679  0.312E+00  0.306E+00
 -20.579  0.312E+00  0.306E+00
 -20.479  0.313E+00  0.307E+00
 -20.379  0.313E+00  0.307E+00
 -20.279  0.314E+00  0.308E+00
 -20.179  0.314E+00  0.308E+00
 -20.079  0.315E+00  0.309E+00
 -19.979  0.315E+00  0.309E+00
 -19.879  0.316E+00  0.310E+00
 -19.779  0.316E+00  0.310E+00
 -19.679  0.317E+00  0.311E+00
 -19.579  0.317E+00  0.311E+00
 -19.479  0.318E+00  0.312E+00
 -19.379  0.319E+00  0.313E+00
 -19.279  0.319E+00  0.313E+00
 -19.179  0.320E+00  0.314E+00
 -19.079  0.321E+00  0.315E+00
 -18.979  0.321E+00  0.316E+00
 -18.879  0.322E+00  0.316E+00
 -18.779  0.323E+00  0.317E+00
 -18.679  0.324E+00  0.318E+00
 -18.579  0.325E+00  0.319E+00
 -18.479  0.326E+00  0.320E+00
 -18.379  0.327E+00  0.321E+00
 -18.279  0.328E+00  0.323E+00
 -18.179  0.329E+00  0.324E+00
 -18.079  0.331E+00  0.326E+00
 -17.979  0.332E+00  0.327E+00
 -17.879  0.334E+00  0.329E+00
 -17.779  0.336E+00  0.331E+00
 -17.679  0.338E+00  0.333E+00
 -17.579  0.340E+00  0.336E+00
 -17.479  0.343E+00  0.338E+00
 -17.379  0.347E+00  0.342E+00
 -17.279  0.351E+00  0.346E+00
 -17.179  0.356E+00  0.352E+00
 -17.079  0.364E+00  0.360E+00
 -16.979  0.374E+00  0.370E+00
 -16.879  0.394E+00  0.389E+00
 -16.779  0.428E+00  0.423E+00
 -16.679  0.459E+00  0.455E+00
 -16.579  0.430E+00  0.426E+00
 -16.479  0.357E+00  0.354E+00
 -16.379  0.297E+00  0.295E+00
 -16.279  0.256E+00  0.254E+00
 -16.179  0.226E+00  0.224E+00
 -16.079  0.199E+00  0.197E+00
 -15.979  0.177E+00  0.175E+00
 -15.879  0.156E+00  0.155E+00
 -15.779  0.144E+00  0.142E+00
 -15.679  0.165E+00  0.163E+00
 -15.579  0.238E+00  0.234E+00
 -15.479  0.304E+00  0.299E+00
 -15.379  0.326E+00  0.320E+00
 -15.279  0.329E+00  0.323E+00
 -15.179  0.330E+00  0.325E+00
 -15.079  0.333E+00  0.328E+00
 -14.979  0.348E+00  0.343E+00
 -14.879  0.391E+00  0.386E+00
 -14.779  0.449E+00  0.443E+00
 -14.679  0.463E+00  0.457E+00
 -14.579  0.429E+00  0.424E+00
 -14.479  0.397E+00  0.392E+00
 -14.379  0.376E+00  0.372E+00
 -14.279  0.362E+00  0.358E+00
 -14.179  0.350E+00  0.346E+00
 -14.079  0.340E+00  0.336E+00
 -13.979  0.331E+00  0.328E+00
 -13.879  0.323E+00  0.320E+00
 -13.779  0.315E+00  0.312E+00
 -13.679  0.308E+00  0.305E+00
 -13.579  0.301E+00  0.298E+00
 -13.479  0.295E+00  0.292E+00
 -13.379  0.289E+00  0.286E+00
 -13.279  0.283E+00  0.281E+00
 -13.179  0.278E+00  0.275E+00
 -13.079  0.277E+00  0.274E+00
 -12.979  0.292E+00  0.289E+00
 -12.879  0.325E+00  0.322E+00
 -12.779  0.350E+00  0.346E+00
 -12.679  0.358E+00  0.354E+00
 -12.579  0.360E+00  0.356E+00
 -12.479  0.362E+00  0.358E+00
 -12.379  0.364E+00  0.360E+00
 -12.279  0.366E+00  0.362E+00
 -12.179  0.368E+00  0.364E+00
 -12.079  0.370E+00  0.367E+00
 -11.979  0.372E+00  0.369E+00
 -11.879  0.375E+00  0.371E+00
 -11.779  0.378E+00  0.374E+00
 -11.679  0.380E+00  0.377E+00
 -11.579  0.383E+00  0.380E+00
 -11.479  0.386E+00  0.382E+00
 -11.379  0.389E+00  0.386E+00
 -11.279  0.392E+00  0.389E+00
 -11.179  0.396E+00  0.393E+00
 -11.079  0.399E+00  0.396E+00
 -10.979  0.404E+00  0.400E+00
 -10.879  0.408E+00  0.404E+00
 -10.779  0.413E+00  0.409E+00
 -10.679  0.417E+00  0.413E+00
 -10.579  0.423E+00  0.419E+00
 -10.479  0.427E+00  0.424E+00
 -10.379  0.434E+00  0.431E+00
 -10.279  0.440E+00  0.437E+00
 -10.179  0.451E+00  0.448E+00
 -10.079  0.487E+00  0.482E+00
  -9.979  0.580E+00  0.571E+00
  -9.879  0.684E+00  0.670E+00
  -9.779  0.735E+00  0.720E+00
  -9.679  0.754E+00  0.738E+00
  -9.579  0.769E+00  0.754E+00
  -9.479  0.785E+00  0.770E+00
  -9.379  0.805E+00  0.791E+00
  -9.279  0.829E+00  0.815E+00
  -9.179  0.860E+00  0.846E+00
  -9.079  0.902E+00  0.889E+00
  -8.979  0.972E+00  0.959E+00
  -8.879  0.107E+01  0.106E+01
  -8.779  0.112E+01  0.111E+01
  -8.679  0.105E+01  0.104E+01
  -8.579  0.944E+00  0.934E+00
  -8.479  0.875E+00  0.865E+00
  -8.379  0.830E+00  0.821E+00
  -8.279  0.796E+00  0.787E+00
  -8.179  0.768E+00  0.760E+00
  -8.079  0.746E+00  0.738E+00
  -7.979  0.725E+00  0.718E+00
  -7.879  0.708E+00  0.701E+00
  -7.779  0.692E+00  0.686E+00
  -7.679  0.678E+00  0.672E+00
  -7.579  0.665E+00  0.659E+00
  -7.479  0.654E+00  0.648E+00
  -7.379  0.643E+00  0.638E+00
  -7.279  0.633E+00  0.628E+00
  -7.179  0.624E+00  0.619E+00
  -7.079  0.615E+00  0.611E+00
  -6.979  0.607E+00  0.603E+00
  -6.879  0.600E+00  0.596E+00
  -6.779  0.593E+00  0.590E+00
  -6.679  0.587E+00  0.584E+00
  -6.579  0.581E+00  0.578E+00
  -6.479  0.576E+00  0.573E+00
  -6.379  0.571E+00  0.569E+00
  -6.279  0.568E+00  0.565E+00
  -6.179  0.564E+00  0.561E+00
  -6.079  0.561E+00  0.558E+00
  -5.979  0.558E+00  0.556E+00
  -5.879  0.556E+00  0.554E+00
  -5.779  0.556E+00  0.554E+00
  -5.679  0.555E+00  0.553E+00
  -5.579  0.548E+00  0.546E+00
  -5.479  0.508E+00  0.506E+00
  -5.379  0.432E+00  0.430E+00
  -5.279  0.382E+00  0.380E+00
  -5.179  0.379E+00  0.378E+00
  -5.079  0.398E+00  0.396E+00
  -4.979  0.427E+00  0.425E+00
  -4.879  0.480E+00  0.478E+00
  -4.779  0.545E+00  0.544E+00
  -4.679  0.548E+00  0.546E+00
  -4.579  0.467E+00  0.466E+00
  -4.479  0.386E+00  0.385E+00
  -4.379  0.334E+00  0.333E+00
  -4.279  0.296E+00  0.295E+00
  -4.179  0.267E+00  0.266E+00
  -4.079  0.241E+00  0.240E+00
  -3.979  0.219E+00  0.219E+00
  -3.879  0.200E+00  0.199E+00
  -3.779  0.181E+00  0.181E+00
  -3.679  0.165E+00  0.164E+00
  -3.579  0.149E+00  0.149E+00
  -3.479  0.135E+00  0.134E+00
  -3.379  0.121E+00  0.120E+00
  -3.279  0.108E+00  0.107E+00
  -3.179  0.949E-01  0.945E-01
  -3.079  0.825E-01  0.821E-01
  -2.979  0.707E-01  0.704E-01
  -2.879  0.590E-01  0.587E-01
  -2.779  0.476E-01  0.473E-01
  -2.679  0.363E-01  0.361E-01
  -2.579  0.251E-01  0.250E-01
  -2.479  0.149E-01  0.148E-01
  -2.379  0.891E-02  0.885E-02
  -2.279  0.113E-01  0.113E-01
  -2.179  0.205E-01  0.204E-01
  -2.079  0.321E-01  0.318E-01
  -1.979  0.442E-01  0.439E-01
  -1.879  0.570E-01  0.565E-01
  -1.779  0.704E-01  0.697E-01
  -1.679  0.846E-01  0.838E-01
  -1.579  0.100E+00  0.990E-01
  -1.479  0.117E+00  0.116E+00
  -1.379  0.136E+00  0.134E+00
  -1.279  0.158E+00  0.156E+00
  -1.179  0.184E+00  0.181E+00
  -1.079  0.219E+00  0.214E+00
  -0.979  0.266E+00  0.260E+00
  -0.879  0.349E+00  0.339E+00
  -0.779  0.491E+00  0.474E+00
  -0.679  0.613E+00  0.590E+00
  -0.579  0.583E+00  0.561E+00
  -0.479  0.485E+00  0.466E+00
  -0.379  0.419E+00  0.404E+00
  -0.279  0.381E+00  0.367E+00
  -0.179  0.356E+00  0.343E+00
  -0.079  0.336E+00  0.323E+00
   0.021  0.321E+00  0.309E+00
   0.121  0.307E+00  0.296E+00
   0.221  0.297E+00  0.286E+00
   0.321  0.286E+00  0.276E+00
   0.421  0.279E+00  0.269E+00
   0.521  0.270E+00  0.260E+00
   0.621  0.269E+00  0.254E+00
   0.721  0.294E+00  0.247E+00
   0.821  0.371E+00  0.244E+00
   0.921  0.441E+00  0.238E+00
   1.021  0.463E+00  0.236E+00
   1.121  0.461E+00  0.231E+00
   1.221  0.460E+00  0.228E+00
   1.321  0.478E+00  0.225E+00
   1.421  0.562E+00  0.222E+00
   1.521  0.710E+00  0.221E+00
   1.621  0.829E+00  0.217E+00
   1.721  0.874E+00  0.215E+00
   1.821  0.877E+00  0.210E+00
   1.921  0.876E+00  0.209E+00
   2.021  0.871E+00  0.204E+00
   2.121  0.870E+00  0.203E+00
   2.221  0.866E+00  0.199E+00
   2.321  0.864E+00  0.196E+00
   2.421  0.872E+00  0.194E+00
   2.521  0.917E+00  0.191E+00
   2.621  0.100E+01  0.191E+00
   2.721  0.106E+01  0.187E+00
   2.821  0.108E+01  0.187E+00
   2.921  0.112E+01  0.182E+00
   3.021  0.121E+01  0.181E+00
   3.121  0.127E+01  0.178E+00
   3.221  0.129E+01  0.176E+00
   3.321  0.129E+01  0.174E+00
   3.421  0.129E+01  0.170E+00
   3.521  0.129E+01  0.172E+00
   3.621  0.130E+01  0.169E+00
   3.721  0.131E+01  0.174E+00
   3.821  0.131E+01  0.170E+00
   3.921  0.123E+01  0.139E+00
   4.021  0.115E+01  0.106E+00
   4.121  0.120E+01  0.128E+00
   4.221  0.131E+01  0.170E+00
   4.321  0.132E+01  0.169E+00
   4.421  0.132E+01  0.166E+00
   4.521  0.131E+01  0.158E+00
   4.621  0.128E+01  0.131E+00
   4.721  0.129E+01  0.104E+00
   4.821  0.143E+01  0.139E+00
   4.921  0.161E+01  0.243E+00
   5.021  0.182E+01  0.414E+00
   5.121  0.197E+01  0.557E+00
   5.221  0.201E+01  0.573E+00
   5.321  0.208E+01  0.589E+00
   5.421  0.222E+01  0.628E+00
   5.521  0.226E+01  0.631E+00
   5.621  0.229E+01  0.642E+00
   5.721  0.237E+01  0.707E+00
   5.821  0.252E+01  0.827E+00
   5.921  0.272E+01  0.103E+01
   6.021  0.283E+01  0.118E+01
   6.121  0.278E+01  0.114E+01
   6.221  0.263E+01  0.967E+00
   6.321  0.249E+01  0.821E+00
   6.421  0.237E+01  0.722E+00
   6.521  0.231E+01  0.665E+00
   6.621  0.226E+01  0.618E+00
   6.721  0.222E+01  0.582E+00
   6.821  0.220E+01  0.560E+00
   6.921  0.216E+01  0.526E+00
   7.021  0.216E+01  0.517E+00
   7.121  0.213E+01  0.490E+00
   7.221  0.213E+01  0.480E+00
   7.321  0.211E+01  0.466E+00
   7.421  0.210E+01  0.453E+00
   7.521  0.210E+01  0.442E+00
   7.621  0.216E+01  0.438E+00
   7.721  0.223E+01  0.423E+00
   7.821  0.230E+01  0.421E+00
   7.921  0.232E+01  0.418E+00
   8.021  0.232E+01  0.401E+00
   8.121  0.237E+01  0.411E+00
   8.221  0.249E+01  0.400E+00
   8.321  0.267E+01  0.396E+00
   8.421  0.275E+01  0.404E+00
   8.521  0.271E+01  0.394E+00
   8.621  0.268E+01  0.396E+00
   8.721  0.263E+01  0.400E+00
   8.821  0.259E+01  0.395E+00
   8.921  0.256E+01  0.387E+00
   9.021  0.253E+01  0.369E+00
   9.121  0.248E+01  0.327E+00
   9.221  0.245E+01  0.321E+00
   9.321  0.245E+01  0.321E+00
   9.421  0.241E+01  0.314E+00
   9.521  0.236E+01  0.327E+00
   9.621  0.238E+01  0.321E+00
   9.721  0.241E+01  0.322E+00
   9.821  0.249E+01  0.336E+00
   9.921  0.255E+01  0.324E+00
  10.021  0.254E+01  0.337E+00
  10.121  0.250E+01  0.343E+00
  10.221  0.251E+01  0.337E+00
  10.321  0.257E+01  0.356E+00
  10.421  0.265E+01  0.369E+00
  10.521  0.272E+01  0.372E+00
  10.621  0.275E+01  0.358E+00
  10.721  0.274E+01  0.326E+00
  10.821  0.269E+01  0.316E+00
  10.921  0.261E+01  0.334E+00
  11.021  0.243E+01  0.329E+00
  11.121  0.229E+01  0.290E+00
  11.221  0.227E+01  0.260E+00
  11.321  0.239E+01  0.245E+00
  11.421  0.259E+01  0.209E+00
  11.521  0.263E+01  0.201E+00
  11.621  0.252E+01  0.209E+00
  11.721  0.248E+01  0.186E+00
  11.821  0.247E+01  0.178E+00
  11.921  0.230E+01  0.176E+00
  12.021  0.206E+01  0.158E+00
  12.121  0.188E+01  0.147E+00
  12.221  0.170E+01  0.148E+00
  12.321  0.151E+01  0.134E+00
  12.421  0.135E+01  0.121E+00
  12.521  0.119E+01  0.121E+00
  12.621  0.112E+01  0.111E+00
  12.721  0.106E+01  0.992E-01
  12.821  0.102E+01  0.101E+00
  12.921  0.101E+01  0.965E-01
  13.021  0.965E+00  0.875E-01
  13.121  0.935E+00  0.855E-01
  13.221  0.869E+00  0.762E-01
  13.321  0.798E+00  0.594E-01
  13.421  0.654E+00  0.401E-01
  13.521  0.459E+00  0.224E-01
  13.621  0.321E+00  0.134E-01
  13.721  0.243E+00  0.103E-01
  13.821  0.198E+00  0.909E-02
  13.921  0.160E+00  0.750E-02
  14.021  0.130E+00  0.633E-02
  14.121  0.108E+00  0.605E-02
  14.221  0.883E-01  0.505E-02
  14.321  0.614E-01  0.337E-02
  14.421  0.419E-01  0.214E-02
  14.521  0.264E-01  0.149E-02
  14.621  0.951E-02  0.673E-03
  14.721  0.152E-02  0.125E-03
  14.821  0.942E-04  0.835E-05
  14.921  0.211E-05  0.192E-06
  15.021  0.164E-07  0.151E-08
