# E (eV)   ldos(E)   pdos(E)   
 -21.875  0.334E-03  0.334E-03
 -21.750  0.486E-06  0.486E-06
 -21.625  0.955E-17  0.955E-17
 -21.500  0.144E-18  0.144E-18
 -21.375  0.353E-85  0.353E-85
 -21.250  0.164E-08  0.164E-08
 -21.125  0.423E-56  0.423E-56
 -21.000  0.234E-85  0.234E-85
 -20.875  0.138E-73  0.138E-73
 -20.750  0.167E-13  0.167E-13
 -20.625  0.110E-02  0.110E-02
 -20.500  0.507E-07  0.507E-07
 -20.375  0.875E-43  0.875E-43
 -20.250  0.155E-85  0.155E-85
 -20.125  0.127E-85  0.127E-85
 -20.000  0.125E-85  0.125E-85
 -19.875  0.123E-85  0.123E-85
 -19.750  0.145E-85  0.145E-85
 -19.625  0.227E-17  0.227E-17
 -19.500  0.838E-25  0.838E-25
 -19.375  0.115E-85  0.115E-85
 -19.250  0.197E-85  0.197E-85
 -19.125  0.903E-86  0.903E-86
 -19.000  0.889E-86  0.889E-86
 -18.875  0.320E-01  0.320E-01
 -18.750  0.875E-86  0.875E-86
 -18.625  0.862E-86  0.862E-86
 -18.500  0.850E-86  0.850E-86
 -18.375  0.153E-07  0.153E-07
 -18.250  0.839E-86  0.839E-86
 -18.125  0.327E-01  0.327E-01
 -18.000  0.123E-68  0.123E-68
 -17.875  0.819E-86  0.819E-86
 -17.750  0.817E-86  0.817E-86
 -17.625  0.811E-86  0.811E-86
 -17.500  0.298E-43  0.298E-43
 -17.375  0.807E-86  0.807E-86
 -17.250  0.176E-66  0.176E-66
 -17.125  0.475E-35  0.475E-35
 -17.000  0.809E-86  0.809E-86
 -16.875  0.822E-86  0.822E-86
 -16.750  0.346E-85  0.346E-85
 -16.625  0.594E-01  0.594E-01
 -16.500  0.124E-11  0.124E-11
 -16.375  0.438E-06  0.438E-06
 -16.250  0.756E+00  0.756E+00
 -16.125  0.247E-44  0.247E-44
 -16.000  0.442E-14  0.442E-14
 -15.875  0.479E-45  0.479E-45
 -15.750  0.111E-67  0.111E-67
 -15.625  0.185E-18  0.185E-18
 -15.500  0.608E+00  0.608E+00
 -15.375  0.226E-17  0.226E-17
 -15.250  0.115E-07  0.115E-07
 -15.125  0.261E-34  0.261E-34
 -15.000  0.173E-21  0.173E-21
 -14.875  0.935E-16  0.935E-16
 -14.750  0.555E+00  0.555E+00
 -14.625  0.109E-26  0.109E-26
 -14.500  0.727E-86  0.727E-86
 -14.375  0.820E-25  0.820E-25
 -14.250  0.703E-86  0.703E-86
 -14.125  0.426E-86  0.426E-86
 -14.000  0.531E-86  0.531E-86
 -13.875  0.521E-86  0.521E-86
 -13.750  0.521E-86  0.521E-86
 -13.625  0.510E-86  0.510E-86
 -13.500  0.390E-86  0.390E-86
 -13.375  0.105E-03  0.105E-03
 -13.250  0.380E-86  0.380E-86
 -13.125  0.478E-86  0.478E-86
 -13.000  0.139E-08  0.139E-08
 -12.875  0.152E-32  0.152E-32
 -12.750  0.852E-10  0.852E-10
 -12.625  0.254E-19  0.254E-19
 -12.500  0.464E-86  0.464E-86
 -12.375  0.144E-25  0.144E-25
 -12.250  0.908E-01  0.908E-01
 -12.125  0.451E-86  0.451E-86
 -12.000  0.557E-86  0.557E-86
 -11.875  0.492E-86  0.492E-86
 -11.750  0.335E-05  0.335E-05
 -11.625  0.489E-86  0.489E-86
 -11.500  0.442E-86  0.442E-86
 -11.375  0.315E-17  0.315E-17
 -11.250  0.526E-86  0.526E-86
 -11.125  0.413E-08  0.413E-08
 -11.000  0.510E-86  0.510E-86
 -10.875  0.326E-86  0.326E-86
 -10.750  0.491E-86  0.491E-86
 -10.625  0.136E-32  0.136E-32
 -10.500  0.470E-86  0.470E-86
 -10.375  0.583E+00  0.583E+00
 -10.250  0.165E-01  0.165E-01
 -10.125  0.312E-21  0.312E-21
 -10.000  0.370E-86  0.370E-86
  -9.875  0.202E-22  0.202E-22
  -9.750  0.314E-55  0.314E-55
  -9.625  0.120E-06  0.120E-06
  -9.500  0.123E-37  0.123E-37
  -9.375  0.308E-86  0.308E-86
  -9.250  0.319E-20  0.319E-20
  -9.125  0.231E-04  0.231E-04
  -9.000  0.351E-17  0.351E-17
  -8.875  0.827E-02  0.827E-02
  -8.750  0.968E-17  0.968E-17
  -8.625  0.173E-21  0.173E-21
  -8.500  0.232E-09  0.232E-09
  -8.375  0.663E-22  0.663E-22
  -8.250  0.234E-15  0.234E-15
  -8.125  0.179E-16  0.179E-16
  -8.000  0.314E-49  0.314E-49
  -7.875  0.648E-38  0.648E-38
  -7.750  0.592E-14  0.592E-14
  -7.625  0.172E-48  0.172E-48
  -7.500  0.297E-21  0.297E-21
  -7.375  0.115E-06  0.115E-06
  -7.250  0.120E-86  0.120E-86
  -7.125  0.706E-19  0.706E-19
  -7.000  0.141E-02  0.141E-02
  -6.875  0.768E-57  0.768E-57
  -6.750  0.199E-59  0.199E-59
  -6.625  0.102E-86  0.102E-86
  -6.500  0.163E-01  0.163E-01
  -6.375  0.142E-40  0.142E-40
  -6.250  0.381E-44  0.381E-44
  -6.125  0.591E-87  0.591E-87
  -6.000  0.316E-24  0.316E-24
  -5.875  0.334E-01  0.334E-01
  -5.750  0.464E-09  0.464E-09
  -5.625  0.133E-21  0.133E-21
  -5.500  0.323E-02  0.323E-02
  -5.375  0.650E-88  0.650E-88
  -5.250  0.462E-89  0.462E-89
  -5.125  0.386-106  0.386-106
  -5.000  0.121-106  0.121-106
  -4.875  0.457-104  0.457-104
  -4.750  0.564E-25  0.564E-25
  -4.625  0.111E-33  0.111E-33
  -4.500  0.880E-20  0.880E-20
  -4.375  0.314E-32  0.314E-32
  -4.250  0.297E-19  0.297E-19
  -4.125  0.351E-37  0.351E-37
  -4.000  0.126E-88  0.126E-88
  -3.875  0.125-105  0.125-105
  -3.750  0.283E-57  0.283E-57
  -3.625  0.209E-56  0.209E-56
  -3.500  0.106-105  0.106-105
  -3.375  0.191E-24  0.191E-24
  -3.250  0.456-100  0.456-100
  -3.125  0.349E-31  0.349E-31
  -3.000  0.150-105  0.150-105
  -2.875  0.911E-25  0.911E-25
  -2.750  0.345E-33  0.345E-33
  -2.625  0.342E-21  0.342E-21
  -2.500  0.781-106  0.781-106
  -2.375  0.831-106  0.831-106
  -2.250  0.632E-60  0.632E-60
  -2.125  0.285-106  0.285-106
  -2.000  0.184E-25  0.184E-25
  -1.875  0.462-106  0.462-106
  -1.750  0.452E-98  0.452E-98
  -1.625  0.765E-22  0.765E-22
  -1.500  0.408E-23  0.408E-23
  -1.375  0.503E-24  0.503E-24
  -1.250  0.174-105  0.174-105
  -1.125  0.682E-21  0.682E-21
  -1.000  0.273E-54  0.273E-54
  -0.875  0.317E-23  0.317E-23
  -0.750  0.104E-19  0.104E-19
  -0.625  0.624-103  0.624-103
  -0.500  0.188E-31  0.188E-31
  -0.375  0.183E-36  0.183E-36
  -0.250  0.271E-90  0.271E-90
  -0.125  0.133-105  0.133-105
  -0.000  0.134-105  0.134-105
   0.125  0.834E-46  0.834E-46
   0.250  0.551-106  0.551-106
   0.375  0.205-106  0.205-106
   0.500  0.921-106  0.921-106
   0.625  0.728-106  0.728-106
   0.750  0.212E-87  0.212E-87
   0.875  0.113E-02  0.113E-02
   1.000  0.304E-03  0.304E-03
   1.125  0.193E-03  0.193E-03
   1.250  0.310E-41  0.310E-41
   1.375  0.229E-18  0.229E-18
   1.500  0.210E-75  0.210E-75
   1.625  0.893E-23  0.893E-23
   1.750  0.847E-06  0.847E-06
   1.875  0.578E-36  0.578E-36
   2.000  0.270E-03  0.270E-03
   2.125  0.178E-18  0.178E-18
   2.250  0.133E-20  0.133E-20
   2.375  0.321E-16  0.321E-16
   2.500  0.210E-04  0.210E-04
   2.625  0.690E-07  0.690E-07
   2.750  0.332E-41  0.332E-41
   2.875  0.801E-38  0.801E-38
   3.000  0.177E-27  0.177E-27
   3.125  0.460E-02  0.460E-02
   3.250  0.326E-07  0.326E-07
   3.375  0.572E-08  0.572E-08
   3.500  0.226E-21  0.226E-21
   3.625  0.570E-24  0.570E-24
   3.750  0.174E-22  0.174E-22
   3.875  0.765E-48  0.765E-48
   4.000  0.107E-33  0.107E-33
   4.125  0.393E-02  0.393E-02
   4.250  0.352E-18  0.352E-18
   4.375  0.394E-08  0.394E-08
   4.500  0.469E-23  0.469E-23
   4.625  0.724E-22  0.724E-22
   4.750  0.205E-03  0.205E-03
   4.875  0.306E-41  0.306E-41
   5.000  0.400E-02  0.400E-02
   5.125  0.124E+01  0.124E+01
   5.250  0.251E-03  0.251E-03
   5.375  0.202E-01  0.202E-01
   5.500  0.106E+00  0.106E+00
   5.625  0.541E-15  0.541E-15
   5.750  0.169E-18  0.169E-18
   5.875  0.189E-18  0.189E-18
   6.000  0.509E-02  0.509E-02
   6.125  0.409E-05  0.409E-05
   6.250  0.220E-09  0.220E-09
   6.375  0.300E-17  0.300E-17
   6.500  0.377E-03  0.377E-03
   6.625  0.205E-01  0.205E-01
   6.750  0.127E-02  0.127E-02
   6.875  0.952E-04  0.952E-04
   7.000  0.798E-03  0.798E-03
   7.125  0.944E-19  0.944E-19
   7.250  0.164E-04  0.164E-04
   7.375  0.176E-29  0.176E-29
   7.500  0.180E-54  0.180E-54
   7.625  0.909E-02  0.909E-02
   7.750  0.164E-66  0.164E-66
   7.875  0.343E-14  0.343E-14
   8.000  0.792E-11  0.792E-11
   8.125  0.392E-53  0.392E-53
   8.250  0.270E-13  0.270E-13
   8.375  0.254E-02  0.254E-02
   8.500  0.413E-09  0.413E-09
   8.625  0.614E-01  0.614E-01
   8.750  0.145E-04  0.145E-04
   8.875  0.116E-02  0.116E-02
   9.000  0.217E-05  0.217E-05
   9.125  0.247E-01  0.247E-01
   9.250  0.142E+00  0.142E+00
   9.375  0.572E-01  0.572E-01
   9.500  0.315E+00  0.315E+00
   9.625  0.739E-03  0.739E-03
   9.750  0.118E-16  0.118E-16
   9.875  0.302E-02  0.302E-02
  10.000  0.102E-04  0.102E-04
  10.125  0.710E-01  0.710E-01
  10.250  0.720E-07  0.720E-07
  10.375  0.757E-01  0.757E-01
  10.500  0.440E-12  0.440E-12
  10.625  0.595E-05  0.595E-05
  10.750  0.151E-14  0.151E-14
  10.875  0.145E-05  0.145E-05
  11.000  0.107E-08  0.107E-08
  11.125  0.160E-34  0.160E-34
  11.250  0.812E-04  0.812E-04
  11.375  0.697E-08  0.697E-08
  11.500  0.167E-06  0.167E-06
  11.625  0.128E-07  0.128E-07
  11.750  0.108E-02  0.108E-02
  11.875  0.555E-22  0.555E-22
  12.000  0.705E-08  0.705E-08
  12.125  0.267E-02  0.267E-02
  12.250  0.129E-03  0.129E-03
  12.375  0.979E-04  0.979E-04
  12.500  0.378E-01  0.378E-01
  12.625  0.591E-14  0.591E-14
  12.750  0.165E-19  0.165E-19
  12.875  0.160E-04  0.160E-04
  13.000  0.534E-04  0.534E-04
  13.125  0.235E-50  0.235E-50
  13.250  0.539E-86  0.539E-86
  13.375  0.143E-31  0.143E-31
  13.500  0.390E-01  0.390E-01
  13.625  0.910E-87  0.910E-87
  13.750  0.535E-26  0.535E-26
  13.875  0.497E-87  0.497E-87
  14.000  0.159E-26  0.159E-26
  14.125  0.175E-69  0.175E-69
  14.250  0.179E-19  0.179E-19
  14.375  0.190E-02  0.190E-02
  14.500  0.150E-11  0.150E-11
  14.625  0.355E-02  0.355E-02
  14.750  0.156E-87  0.156E-87
