# E (eV)   ldos(E)   pdos(E)   
 -22.279  0.166E-05  0.166E-05
 -22.179  0.102E-03  0.102E-03
 -22.079  0.228E-02  0.228E-02
 -21.979  0.194E-01  0.194E-01
 -21.879  0.687E-01  0.687E-01
 -21.779  0.120E+00  0.120E+00
 -21.679  0.138E+00  0.138E+00
 -21.579  0.137E+00  0.137E+00
 -21.479  0.134E+00  0.134E+00
 -21.379  0.130E+00  0.130E+00
 -21.279  0.127E+00  0.127E+00
 -21.179  0.124E+00  0.124E+00
 -21.079  0.122E+00  0.122E+00
 -20.979  0.119E+00  0.119E+00
 -20.879  0.117E+00  0.117E+00
 -20.779  0.115E+00  0.115E+00
 -20.679  0.113E+00  0.113E+00
 -20.579  0.111E+00  0.111E+00
 -20.479  0.110E+00  0.110E+00
 -20.379  0.108E+00  0.108E+00
 -20.279  0.107E+00  0.107E+00
 -20.179  0.105E+00  0.105E+00
 -20.079  0.104E+00  0.104E+00
 -19.979  0.103E+00  0.103E+00
 -19.879  0.102E+00  0.102E+00
 -19.779  0.101E+00  0.101E+00
 -19.679  0.996E-01  0.996E-01
 -19.579  0.986E-01  0.986E-01
 -19.479  0.977E-01  0.977E-01
 -19.379  0.969E-01  0.969E-01
 -19.279  0.961E-01  0.961E-01
 -19.179  0.953E-01  0.953E-01
 -19.079  0.946E-01  0.946E-01
 -18.979  0.939E-01  0.939E-01
 -18.879  0.933E-01  0.933E-01
 -18.779  0.928E-01  0.928E-01
 -18.679  0.922E-01  0.922E-01
 -18.579  0.918E-01  0.918E-01
 -18.479  0.913E-01  0.913E-01
 -18.379  0.910E-01  0.910E-01
 -18.279  0.907E-01  0.907E-01
 -18.179  0.904E-01  0.904E-01
 -18.079  0.902E-01  0.902E-01
 -17.979  0.901E-01  0.901E-01
 -17.879  0.901E-01  0.901E-01
 -17.779  0.902E-01  0.902E-01
 -17.679  0.903E-01  0.903E-01
 -17.579  0.907E-01  0.907E-01
 -17.479  0.911E-01  0.911E-01
 -17.379  0.920E-01  0.920E-01
 -17.279  0.930E-01  0.930E-01
 -17.179  0.945E-01  0.945E-01
 -17.079  0.968E-01  0.968E-01
 -16.979  0.100E+00  0.100E+00
 -16.879  0.106E+00  0.106E+00
 -16.779  0.117E+00  0.117E+00
 -16.679  0.128E+00  0.128E+00
 -16.579  0.120E+00  0.120E+00
 -16.479  0.983E-01  0.983E-01
 -16.379  0.804E-01  0.804E-01
 -16.279  0.683E-01  0.683E-01
 -16.179  0.594E-01  0.594E-01
 -16.079  0.518E-01  0.518E-01
 -15.979  0.456E-01  0.456E-01
 -15.879  0.399E-01  0.399E-01
 -15.779  0.354E-01  0.354E-01
 -15.679  0.350E-01  0.350E-01
 -15.579  0.409E-01  0.409E-01
 -15.479  0.472E-01  0.472E-01
 -15.379  0.489E-01  0.489E-01
 -15.279  0.487E-01  0.487E-01
 -15.179  0.484E-01  0.484E-01
 -15.079  0.485E-01  0.485E-01
 -14.979  0.513E-01  0.513E-01
 -14.879  0.603E-01  0.603E-01
 -14.779  0.729E-01  0.729E-01
 -14.679  0.772E-01  0.772E-01
 -14.579  0.719E-01  0.719E-01
 -14.479  0.662E-01  0.662E-01
 -14.379  0.625E-01  0.625E-01
 -14.279  0.598E-01  0.598E-01
 -14.179  0.576E-01  0.576E-01
 -14.079  0.556E-01  0.556E-01
 -13.979  0.537E-01  0.537E-01
 -13.879  0.520E-01  0.520E-01
 -13.779  0.504E-01  0.504E-01
 -13.679  0.488E-01  0.488E-01
 -13.579  0.474E-01  0.474E-01
 -13.479  0.459E-01  0.459E-01
 -13.379  0.446E-01  0.446E-01
 -13.279  0.433E-01  0.433E-01
 -13.179  0.420E-01  0.420E-01
 -13.079  0.408E-01  0.408E-01
 -12.979  0.397E-01  0.397E-01
 -12.879  0.389E-01  0.389E-01
 -12.779  0.383E-01  0.383E-01
 -12.679  0.379E-01  0.379E-01
 -12.579  0.375E-01  0.375E-01
 -12.479  0.371E-01  0.371E-01
 -12.379  0.367E-01  0.367E-01
 -12.279  0.363E-01  0.363E-01
 -12.179  0.358E-01  0.358E-01
 -12.079  0.355E-01  0.355E-01
 -11.979  0.350E-01  0.350E-01
 -11.879  0.346E-01  0.346E-01
 -11.779  0.342E-01  0.342E-01
 -11.679  0.338E-01  0.338E-01
 -11.579  0.334E-01  0.334E-01
 -11.479  0.329E-01  0.329E-01
 -11.379  0.325E-01  0.325E-01
 -11.279  0.321E-01  0.321E-01
 -11.179  0.316E-01  0.316E-01
 -11.079  0.312E-01  0.312E-01
 -10.979  0.308E-01  0.308E-01
 -10.879  0.303E-01  0.303E-01
 -10.779  0.298E-01  0.298E-01
 -10.679  0.294E-01  0.294E-01
 -10.579  0.289E-01  0.289E-01
 -10.479  0.284E-01  0.284E-01
 -10.379  0.279E-01  0.279E-01
 -10.279  0.274E-01  0.274E-01
 -10.179  0.269E-01  0.269E-01
 -10.079  0.263E-01  0.263E-01
  -9.979  0.258E-01  0.258E-01
  -9.879  0.252E-01  0.252E-01
  -9.779  0.247E-01  0.247E-01
  -9.679  0.241E-01  0.241E-01
  -9.579  0.235E-01  0.235E-01
  -9.479  0.228E-01  0.228E-01
  -9.379  0.222E-01  0.222E-01
  -9.279  0.214E-01  0.214E-01
  -9.179  0.207E-01  0.207E-01
  -9.079  0.198E-01  0.198E-01
  -8.979  0.190E-01  0.190E-01
  -8.879  0.179E-01  0.179E-01
  -8.779  0.167E-01  0.167E-01
  -8.679  0.155E-01  0.155E-01
  -8.579  0.145E-01  0.145E-01
  -8.479  0.136E-01  0.136E-01
  -8.379  0.128E-01  0.128E-01
  -8.279  0.120E-01  0.120E-01
  -8.179  0.113E-01  0.113E-01
  -8.079  0.106E-01  0.106E-01
  -7.979  0.999E-02  0.999E-02
  -7.879  0.939E-02  0.939E-02
  -7.779  0.880E-02  0.880E-02
  -7.679  0.826E-02  0.826E-02
  -7.579  0.771E-02  0.771E-02
  -7.479  0.721E-02  0.721E-02
  -7.379  0.669E-02  0.669E-02
  -7.279  0.623E-02  0.623E-02
  -7.179  0.576E-02  0.576E-02
  -7.079  0.532E-02  0.532E-02
  -6.979  0.489E-02  0.489E-02
  -6.879  0.447E-02  0.447E-02
  -6.779  0.407E-02  0.407E-02
  -6.679  0.368E-02  0.368E-02
  -6.579  0.332E-02  0.332E-02
  -6.479  0.296E-02  0.296E-02
  -6.379  0.261E-02  0.261E-02
  -6.279  0.228E-02  0.228E-02
  -6.179  0.196E-02  0.196E-02
  -6.079  0.166E-02  0.166E-02
  -5.979  0.137E-02  0.137E-02
  -5.879  0.110E-02  0.110E-02
  -5.779  0.836E-03  0.836E-03
  -5.679  0.590E-03  0.590E-03
  -5.579  0.363E-03  0.363E-03
  -5.479  0.171E-03  0.171E-03
  -5.379  0.505E-04  0.505E-04
  -5.279  0.770E-05  0.770E-05
  -5.179  0.519E-06  0.519E-06
  -5.079  0.141E-07  0.141E-07
  -4.979  0.145E-09  0.145E-09
  -4.879  0.549E-12  0.549E-12
  -4.779  0.745E-15  0.745E-15
  -4.679  0.195E-18  0.195E-18
  -4.579  0.294E-20  0.294E-20
  -4.479  0.984E-21  0.984E-21
  -4.379  0.677E-21  0.677E-21
  -4.279  0.583E-21  0.583E-21
  -4.179  0.421E-21  0.421E-21
  -4.079  0.321E-21  0.321E-21
  -3.979  0.243E-21  0.243E-21
  -3.879  0.188E-21  0.188E-21
  -3.779  0.184E-21  0.184E-21
  -3.679  0.175E-21  0.175E-21
  -3.579  0.172E-21  0.172E-21
  -3.479  0.226E-21  0.226E-21
  -3.379  0.302E-21  0.302E-21
  -3.279  0.308E-21  0.308E-21
  -3.179  0.293E-21  0.293E-21
  -3.079  0.272E-21  0.272E-21
  -2.979  0.225E-21  0.225E-21
  -2.879  0.155E-21  0.155E-21
  -2.779  0.769E-22  0.769E-22
  -2.679  0.393E-22  0.393E-22
  -2.579  0.250E-22  0.250E-22
  -2.479  0.163E-22  0.163E-22
  -2.379  0.151E-22  0.151E-22
  -2.279  0.133E-22  0.133E-22
  -2.179  0.160E-22  0.160E-22
  -2.079  0.562E-22  0.562E-22
  -1.979  0.186E-21  0.186E-21
  -1.879  0.310E-21  0.310E-21
  -1.779  0.373E-21  0.373E-21
  -1.679  0.416E-21  0.416E-21
  -1.579  0.330E-21  0.330E-21
  -1.479  0.244E-21  0.244E-21
  -1.379  0.237E-21  0.237E-21
  -1.279  0.285E-21  0.285E-21
  -1.179  0.496E-21  0.496E-21
  -1.079  0.962E-21  0.962E-21
  -0.979  0.178E-20  0.178E-20
  -0.879  0.613E-20  0.613E-20
  -0.779  0.232E-19  0.232E-19
  -0.679  0.411E-19  0.411E-19
  -0.579  0.296E-19  0.296E-19
  -0.479  0.120E-19  0.120E-19
  -0.379  0.652E-20  0.652E-20
  -0.279  0.495E-20  0.495E-20
  -0.179  0.401E-20  0.401E-20
  -0.079  0.379E-20  0.379E-20
   0.021  0.442E-20  0.442E-20
   0.121  0.108E-16  0.108E-16
   0.221  0.233E-13  0.233E-13
   0.321  0.140E-10  0.140E-10
   0.421  0.292E-08  0.292E-08
   0.521  0.215E-06  0.215E-06
   0.621  0.567E-05  0.567E-05
   0.721  0.556E-04  0.556E-04
   0.821  0.215E-03  0.215E-03
   0.921  0.369E-03  0.369E-03
   1.021  0.351E-03  0.351E-03
   1.121  0.249E-03  0.249E-03
   1.221  0.159E-03  0.159E-03
   1.321  0.967E-04  0.967E-04
   1.421  0.561E-04  0.561E-04
   1.521  0.376E-04  0.376E-04
   1.621  0.463E-04  0.463E-04
   1.721  0.616E-04  0.616E-04
   1.821  0.573E-04  0.573E-04
   1.921  0.442E-04  0.442E-04
   2.021  0.345E-04  0.345E-04
   2.121  0.294E-04  0.294E-04
   2.221  0.273E-04  0.273E-04
   2.321  0.272E-04  0.272E-04
   2.421  0.281E-04  0.281E-04
   2.521  0.296E-04  0.296E-04
   2.621  0.311E-04  0.311E-04
   2.721  0.325E-04  0.325E-04
   2.821  0.342E-04  0.342E-04
   2.921  0.426E-04  0.426E-04
   3.021  0.806E-04  0.806E-04
   3.121  0.145E-03  0.145E-03
   3.221  0.174E-03  0.174E-03
   3.321  0.161E-03  0.161E-03
   3.421  0.140E-03  0.140E-03
   3.521  0.124E-03  0.124E-03
   3.621  0.114E-03  0.114E-03
   3.721  0.109E-03  0.109E-03
   3.821  0.109E-03  0.109E-03
   3.921  0.115E-03  0.115E-03
   4.021  0.126E-03  0.126E-03
   4.121  0.146E-03  0.146E-03
   4.221  0.174E-03  0.174E-03
   4.321  0.216E-03  0.216E-03
   4.421  0.277E-03  0.277E-03
   4.521  0.367E-03  0.367E-03
   4.621  0.507E-03  0.507E-03
   4.721  0.938E-03  0.938E-03
   4.821  0.521E-02  0.521E-02
   4.921  0.324E-01  0.324E-01
   5.021  0.992E-01  0.992E-01
   5.121  0.154E+00  0.154E+00
   5.221  0.159E+00  0.159E+00
   5.321  0.158E+00  0.158E+00
   5.421  0.167E+00  0.167E+00
   5.521  0.165E+00  0.165E+00
   5.621  0.159E+00  0.159E+00
   5.721  0.165E+00  0.165E+00
   5.821  0.173E+00  0.173E+00
   5.921  0.179E+00  0.179E+00
   6.021  0.172E+00  0.172E+00
   6.121  0.158E+00  0.158E+00
   6.221  0.139E+00  0.139E+00
   6.321  0.126E+00  0.126E+00
   6.421  0.113E+00  0.113E+00
   6.521  0.106E+00  0.106E+00
   6.621  0.983E-01  0.983E-01
   6.721  0.916E-01  0.916E-01
   6.821  0.887E-01  0.887E-01
   6.921  0.806E-01  0.806E-01
   7.021  0.806E-01  0.806E-01
   7.121  0.740E-01  0.740E-01
   7.221  0.720E-01  0.720E-01
   7.321  0.700E-01  0.700E-01
   7.421  0.658E-01  0.658E-01
   7.521  0.646E-01  0.646E-01
   7.621  0.633E-01  0.633E-01
   7.721  0.598E-01  0.598E-01
   7.821  0.598E-01  0.598E-01
   7.921  0.591E-01  0.591E-01
   8.021  0.555E-01  0.555E-01
   8.121  0.582E-01  0.582E-01
   8.221  0.560E-01  0.560E-01
   8.321  0.549E-01  0.549E-01
   8.421  0.578E-01  0.578E-01
   8.521  0.557E-01  0.557E-01
   8.621  0.568E-01  0.568E-01
   8.721  0.589E-01  0.589E-01
   8.821  0.584E-01  0.584E-01
   8.921  0.593E-01  0.593E-01
   9.021  0.623E-01  0.623E-01
   9.121  0.615E-01  0.615E-01
   9.221  0.635E-01  0.635E-01
   9.321  0.659E-01  0.659E-01
   9.421  0.652E-01  0.652E-01
   9.521  0.680E-01  0.680E-01
   9.621  0.691E-01  0.691E-01
   9.721  0.689E-01  0.689E-01
   9.821  0.724E-01  0.724E-01
   9.921  0.716E-01  0.716E-01
  10.021  0.738E-01  0.738E-01
  10.121  0.759E-01  0.759E-01
  10.221  0.761E-01  0.761E-01
  10.321  0.804E-01  0.804E-01
  10.421  0.837E-01  0.837E-01
  10.521  0.864E-01  0.864E-01
  10.621  0.799E-01  0.799E-01
  10.721  0.684E-01  0.684E-01
  10.821  0.657E-01  0.657E-01
  10.921  0.697E-01  0.697E-01
  11.021  0.671E-01  0.671E-01
  11.121  0.597E-01  0.597E-01
  11.221  0.516E-01  0.516E-01
  11.321  0.458E-01  0.458E-01
  11.421  0.391E-01  0.391E-01
  11.521  0.350E-01  0.350E-01
  11.621  0.351E-01  0.351E-01
  11.721  0.325E-01  0.325E-01
  11.821  0.303E-01  0.303E-01
  11.921  0.287E-01  0.287E-01
  12.021  0.260E-01  0.260E-01
  12.121  0.244E-01  0.244E-01
  12.221  0.234E-01  0.234E-01
  12.321  0.215E-01  0.215E-01
  12.421  0.202E-01  0.202E-01
  12.521  0.197E-01  0.197E-01
  12.621  0.185E-01  0.185E-01
  12.721  0.175E-01  0.175E-01
  12.821  0.170E-01  0.170E-01
  12.921  0.168E-01  0.168E-01
  13.021  0.170E-01  0.170E-01
  13.121  0.177E-01  0.177E-01
  13.221  0.173E-01  0.173E-01
  13.321  0.150E-01  0.150E-01
  13.421  0.115E-01  0.115E-01
  13.521  0.707E-02  0.707E-02
  13.621  0.412E-02  0.412E-02
  13.721  0.298E-02  0.298E-02
  13.821  0.251E-02  0.251E-02
  13.921  0.217E-02  0.217E-02
  14.021  0.173E-02  0.173E-02
  14.121  0.150E-02  0.150E-02
  14.221  0.135E-02  0.135E-02
  14.321  0.986E-03  0.986E-03
  14.421  0.612E-03  0.612E-03
  14.521  0.407E-03  0.407E-03
  14.621  0.236E-03  0.236E-03
  14.721  0.673E-04  0.673E-04
  14.821  0.720E-05  0.720E-05
  14.921  0.270E-06  0.270E-06
  15.021  0.346E-08  0.346E-08
