# E (eV)  dos(E)    pdos(E)
 -22.171  0.398E-04  0.391E-04
 -22.071  0.709E-02  0.697E-02
 -21.971  0.187E+00  0.184E+00
 -21.871  0.823E+00  0.810E+00
 -21.771  0.896E+00  0.882E+00
 -21.671  0.609E+00  0.599E+00
 -21.571  0.477E+00  0.469E+00
 -21.471  0.409E+00  0.402E+00
 -21.371  0.364E+00  0.358E+00
 -21.271  0.332E+00  0.326E+00
 -21.171  0.307E+00  0.302E+00
 -21.071  0.287E+00  0.282E+00
 -20.971  0.271E+00  0.266E+00
 -20.871  0.257E+00  0.252E+00
 -20.771  0.245E+00  0.241E+00
 -20.671  0.235E+00  0.231E+00
 -20.571  0.226E+00  0.221E+00
 -20.471  0.218E+00  0.214E+00
 -20.371  0.212E+00  0.208E+00
 -20.271  0.204E+00  0.200E+00
 -20.171  0.198E+00  0.194E+00
 -20.071  0.195E+00  0.191E+00
 -19.971  0.187E+00  0.184E+00
 -19.871  0.181E+00  0.178E+00
 -19.771  0.184E+00  0.180E+00
 -19.671  0.173E+00  0.170E+00
 -19.571  0.171E+00  0.167E+00
 -19.471  0.172E+00  0.169E+00
 -19.371  0.161E+00  0.158E+00
 -19.271  0.166E+00  0.163E+00
 -19.171  0.155E+00  0.153E+00
 -19.071  0.163E+00  0.160E+00
 -18.971  0.148E+00  0.145E+00
 -18.871  0.159E+00  0.156E+00
 -18.771  0.146E+00  0.144E+00
 -18.671  0.149E+00  0.146E+00
 -18.571  0.150E+00  0.147E+00
 -18.471  0.138E+00  0.136E+00
 -18.371  0.150E+00  0.148E+00
 -18.271  0.134E+00  0.132E+00
 -18.171  0.145E+00  0.143E+00
 -18.071  0.136E+00  0.134E+00
 -17.971  0.135E+00  0.133E+00
 -17.871  0.143E+00  0.140E+00
 -17.771  0.124E+00  0.122E+00
 -17.671  0.150E+00  0.147E+00
 -17.571  0.115E+00  0.113E+00
 -17.471  0.155E+00  0.152E+00
 -17.371  0.111E+00  0.110E+00
 -17.271  0.155E+00  0.153E+00
 -17.171  0.116E+00  0.115E+00
 -17.071  0.149E+00  0.148E+00
 -16.971  0.134E+00  0.132E+00
 -16.871  0.150E+00  0.149E+00
 -16.771  0.259E+00  0.257E+00
 -16.671  0.791E+00  0.785E+00
 -16.571  0.109E+01  0.108E+01
 -16.471  0.729E+00  0.723E+00
 -16.371  0.584E+00  0.580E+00
 -16.271  0.471E+00  0.467E+00
 -16.171  0.446E+00  0.443E+00
 -16.071  0.395E+00  0.392E+00
 -15.971  0.373E+00  0.370E+00
 -15.871  0.358E+00  0.355E+00
 -15.771  0.348E+00  0.346E+00
 -15.671  0.689E+00  0.679E+00
 -15.571  0.136E+01  0.133E+01
 -15.471  0.126E+01  0.124E+01
 -15.371  0.956E+00  0.941E+00
 -15.271  0.871E+00  0.858E+00
 -15.171  0.786E+00  0.776E+00
 -15.071  0.834E+00  0.824E+00
 -14.971  0.930E+00  0.920E+00
 -14.871  0.101E+01  0.999E+00
 -14.771  0.103E+01  0.102E+01
 -14.671  0.524E+00  0.519E+00
 -14.571  0.173E+00  0.171E+00
 -14.471  0.141E+00  0.139E+00
 -14.371  0.155E+00  0.153E+00
 -14.271  0.125E+00  0.123E+00
 -14.171  0.155E+00  0.153E+00
 -14.071  0.123E+00  0.122E+00
 -13.971  0.142E+00  0.141E+00
 -13.871  0.133E+00  0.132E+00
 -13.771  0.122E+00  0.121E+00
 -13.671  0.144E+00  0.143E+00
 -13.571  0.112E+00  0.112E+00
 -13.471  0.137E+00  0.136E+00
 -13.371  0.126E+00  0.125E+00
 -13.271  0.109E+00  0.108E+00
 -13.171  0.149E+00  0.148E+00
 -13.071  0.118E+00  0.117E+00
 -12.971  0.434E+00  0.427E+00
 -12.871  0.692E+00  0.681E+00
 -12.771  0.542E+00  0.534E+00
 -12.671  0.443E+00  0.437E+00
 -12.571  0.370E+00  0.365E+00
 -12.471  0.362E+00  0.357E+00
 -12.371  0.355E+00  0.351E+00
 -12.271  0.304E+00  0.300E+00
 -12.171  0.355E+00  0.351E+00
 -12.071  0.284E+00  0.281E+00
 -11.971  0.326E+00  0.323E+00
 -11.871  0.299E+00  0.296E+00
 -11.771  0.295E+00  0.292E+00
 -11.671  0.299E+00  0.296E+00
 -11.571  0.301E+00  0.298E+00
 -11.471  0.272E+00  0.270E+00
 -11.371  0.312E+00  0.309E+00
 -11.271  0.274E+00  0.271E+00
 -11.171  0.278E+00  0.276E+00
 -11.071  0.316E+00  0.313E+00
 -10.971  0.239E+00  0.237E+00
 -10.871  0.327E+00  0.325E+00
 -10.771  0.258E+00  0.256E+00
 -10.671  0.282E+00  0.279E+00
 -10.571  0.307E+00  0.305E+00
 -10.471  0.253E+00  0.251E+00
 -10.371  0.308E+00  0.306E+00
 -10.271  0.283E+00  0.280E+00
 -10.171  0.277E+00  0.275E+00
 -10.071  0.470E+00  0.459E+00
  -9.971  0.992E+00  0.952E+00
  -9.871  0.114E+01  0.110E+01
  -9.771  0.864E+00  0.834E+00
  -9.671  0.740E+00  0.717E+00
  -9.571  0.696E+00  0.677E+00
  -9.471  0.648E+00  0.631E+00
  -9.371  0.638E+00  0.623E+00
  -9.271  0.621E+00  0.608E+00
  -9.171  0.635E+00  0.624E+00
  -9.071  0.625E+00  0.615E+00
  -8.971  0.719E+00  0.709E+00
  -8.871  0.929E+00  0.919E+00
  -8.771  0.120E+01  0.119E+01
  -8.671  0.889E+00  0.880E+00
  -8.571  0.688E+00  0.680E+00
  -8.471  0.622E+00  0.615E+00
  -8.371  0.588E+00  0.581E+00
  -8.271  0.542E+00  0.536E+00
  -8.171  0.558E+00  0.552E+00
  -8.071  0.497E+00  0.492E+00
  -7.971  0.531E+00  0.527E+00
  -7.871  0.484E+00  0.479E+00
  -7.771  0.497E+00  0.493E+00
  -7.671  0.486E+00  0.482E+00
  -7.571  0.477E+00  0.473E+00
  -7.471  0.474E+00  0.471E+00
  -7.371  0.478E+00  0.474E+00
  -7.271  0.459E+00  0.456E+00
  -7.171  0.481E+00  0.478E+00
  -7.071  0.457E+00  0.455E+00
  -6.971  0.477E+00  0.475E+00
  -6.871  0.468E+00  0.465E+00
  -6.771  0.475E+00  0.473E+00
  -6.671  0.480E+00  0.477E+00
  -6.571  0.486E+00  0.484E+00
  -6.471  0.487E+00  0.485E+00
  -6.371  0.512E+00  0.510E+00
  -6.271  0.504E+00  0.502E+00
  -6.171  0.537E+00  0.535E+00
  -6.071  0.552E+00  0.550E+00
  -5.971  0.568E+00  0.567E+00
  -5.871  0.634E+00  0.632E+00
  -5.771  0.652E+00  0.650E+00
  -5.671  0.786E+00  0.783E+00
  -5.571  0.963E+00  0.960E+00
  -5.471  0.130E+01  0.129E+01
  -5.371  0.798E+00  0.796E+00
  -5.271  0.217E+00  0.217E+00
  -5.171  0.167E+00  0.167E+00
  -5.071  0.148E+00  0.148E+00
  -4.971  0.196E+00  0.196E+00
  -4.871  0.228E+00  0.228E+00
  -4.771  0.641E+00  0.639E+00
  -4.671  0.979E+00  0.976E+00
  -4.571  0.709E+00  0.707E+00
  -4.471  0.518E+00  0.517E+00
  -4.371  0.418E+00  0.417E+00
  -4.271  0.401E+00  0.399E+00
  -4.171  0.334E+00  0.333E+00
  -4.071  0.343E+00  0.342E+00
  -3.971  0.297E+00  0.297E+00
  -3.871  0.299E+00  0.298E+00
  -3.771  0.282E+00  0.281E+00
  -3.671  0.264E+00  0.263E+00
  -3.571  0.273E+00  0.272E+00
  -3.471  0.240E+00  0.239E+00
  -3.371  0.263E+00  0.262E+00
  -3.271  0.227E+00  0.226E+00
  -3.171  0.251E+00  0.250E+00
  -3.071  0.220E+00  0.219E+00
  -2.971  0.239E+00  0.237E+00
  -2.871  0.216E+00  0.215E+00
  -2.771  0.229E+00  0.228E+00
  -2.671  0.213E+00  0.212E+00
  -2.571  0.225E+00  0.224E+00
  -2.471  0.248E+00  0.246E+00
  -2.371  0.368E+00  0.366E+00
  -2.271  0.283E+00  0.281E+00
  -2.171  0.235E+00  0.233E+00
  -2.071  0.214E+00  0.213E+00
  -1.971  0.241E+00  0.239E+00
  -1.871  0.224E+00  0.222E+00
  -1.771  0.256E+00  0.254E+00
  -1.671  0.240E+00  0.238E+00
  -1.571  0.279E+00  0.275E+00
  -1.471  0.268E+00  0.265E+00
  -1.371  0.311E+00  0.307E+00
  -1.271  0.318E+00  0.313E+00
  -1.171  0.368E+00  0.361E+00
  -1.071  0.421E+00  0.411E+00
  -0.971  0.505E+00  0.492E+00
  -0.871  0.742E+00  0.717E+00
  -0.771  0.128E+01  0.123E+01
  -0.671  0.145E+01  0.138E+01
  -0.571  0.481E+00  0.459E+00
  -0.471  0.189E+00  0.182E+00
  -0.371  0.155E+00  0.150E+00
  -0.271  0.126E+00  0.121E+00
  -0.171  0.148E+00  0.143E+00
  -0.071  0.113E+00  0.109E+00
   0.029  0.122E+00  0.118E+00
   0.129  0.133E+00  0.128E+00
   0.229  0.847E-01  0.814E-01
   0.329  0.150E+00  0.144E+00
   0.429  0.804E-01  0.773E-01
   0.529  0.119E+00  0.115E+00
   0.629  0.123E+00  0.116E+00
   0.729  0.172E+00  0.713E-01
   0.829  0.744E+00  0.141E+00
   0.929  0.889E+00  0.840E-01
   1.029  0.663E+00  0.109E+00
   1.129  0.542E+00  0.123E+00
   1.229  0.434E+00  0.817E-01
   1.329  0.444E+00  0.120E+00
   1.429  0.605E+00  0.106E+00
   1.529  0.122E+01  0.107E+00
   1.629  0.170E+01  0.124E+00
   1.729  0.162E+01  0.106E+00
   1.829  0.126E+01  0.106E+00
   1.929  0.107E+01  0.108E+00
   2.029  0.955E+00  0.106E+00
   2.129  0.873E+00  0.966E-01
   2.229  0.826E+00  0.104E+00
   2.329  0.784E+00  0.110E+00
   2.429  0.725E+00  0.834E-01
   2.529  0.802E+00  0.109E+00
   2.629  0.125E+01  0.118E+00
   2.729  0.145E+01  0.828E-01
   2.829  0.122E+01  0.124E+00
   2.929  0.109E+01  0.110E+00
   3.029  0.129E+01  0.681E-01
   3.129  0.177E+01  0.134E+00
   3.229  0.151E+01  0.953E-01
   3.329  0.125E+01  0.670E-01
   3.429  0.121E+01  0.143E+00
   3.529  0.110E+01  0.769E-01
   3.629  0.101E+01  0.773E-01
   3.729  0.109E+01  0.147E+00
   3.829  0.944E+00  0.738E-01
   3.929  0.927E+00  0.837E-01
   4.029  0.831E+00  0.863E-01
   4.129  0.778E+00  0.478E-01
   4.229  0.891E+00  0.937E-01
   4.329  0.887E+00  0.147E+00
   4.429  0.834E+00  0.696E-01
   4.529  0.816E+00  0.105E+00
   4.629  0.883E+00  0.124E+00
   4.729  0.108E+01  0.384E-01
   4.829  0.154E+01  0.929E-01
   4.929  0.176E+01  0.420E+00
   5.029  0.223E+01  0.101E+01
